# 22 Mar 2012 12:40:11 PM Photodiode thickness: 300 micron; gain: 0.5; Beam size: 0.360000 , 0.194000 mm; Spear current: 350.2251997 Integration time: 1 collimator_size: 0.005 0.005
# Energy(keV) Flux(ph/s) Current(mA) i2 shutter closed(V) i2 shutter open(V)
6.690 3.713e+10 0.010987    1.46     1.45 4.687e+09 0.001387    0.19     0.19
7.206 5.620e+10 0.01788    1.49     1.50 6.360e+09 0.0020235    0.18     0.18
7.721 7.813e+10 0.0265155    1.45     1.40 8.827e+09 0.0029955    0.17     0.16
8.237 9.130e+10 0.032755    1.26     1.22 9.243e+09 0.003316    0.14     0.13
8.752 1.051e+11 0.0394455    1.04     1.01 1.007e+10 0.003782    0.11     0.11
9.268 1.012e+11 0.0393315    0.93     0.80 1.061e+10 0.0041265    0.10     0.09
9.783 8.459e+10 0.033691    0.68     0.64 8.330e+09 0.003318    0.07     0.07
10.299 1.025e+11 0.04142    0.77     0.56 9.680e+09 0.003911    0.08     0.06
10.814 1.041e+11 0.0422725    0.66     0.46 9.542e+09 0.003875    0.07     0.05
11.329 9.251e+10 0.037453    0.55     0.37 9.258e+09 0.003748    0.06     0.04
11.845 7.477e+10 0.0299685    0.60     0.29 7.028e+09 0.002817    0.06     0.03
12.360 4.521e+10 0.0178345    0.54     0.23 4.427e+09 0.0017465    0.06     0.02
12.876 3.698e+10 0.014283    0.47     0.18 3.469e+09 0.00134    0.05     0.02
13.391 4.544e+10 0.0171175    0.52     0.18 3.931e+09 0.001481    0.05     0.02
13.907 4.251e+10 0.015563    0.50     0.15 4.352e+09 0.0015935    0.06     0.02
14.423 3.048e+10 0.0108165    0.49     0.13 3.492e+09 0.0012395    0.06     0.01
14.938 2.995e+10 0.0102825    0.47     0.11 3.132e+09 0.001075    0.06     0.01
15.454 3.789e+10 0.0125595    0.53     0.10 4.548e+09 0.0015075    0.07     0.01
15.969 3.246e+10 0.0103765    0.50     0.09 4.486e+09 0.001434    0.07     0.01
16.485 2.770e+10 0.00853    0.47     0.07 3.731e+09 0.001149    0.07     0.01
17.000 1.942e+10 0.0057585    0.41     0.06 3.295e+09 0.000977    0.08     0.01
 
#The flux was measured through this aperture (hor, ver in mm)
flux_aperture
