# 22 Mar 2012 12:34:01 PM Photodiode thickness: 300 micron; gain: 0.5; Beam size: 0.360000 , 0.194000 mm; Spear current: 347.7782606 Integration time: 1 collimator_size: 0.02 0.02
# Energy(keV) Flux(ph/s) Current(mA) i2 shutter closed(V) i2 shutter open(V)
6.690 3.041e+11 0.089993    1.38     1.37 3.769e+10 0.0111525    0.18     0.18
7.206 4.585e+11 0.145878    1.41     1.41 5.390e+10 0.017148    0.18     0.18
7.721 6.255e+11 0.212271    1.40     1.36 6.956e+10 0.0236065    0.16     0.16
8.237 7.164e+11 0.2570095    1.22     1.17 7.571e+10 0.027163    0.13     0.13
8.752 8.148e+11 0.305922    1.01     0.98 8.023e+10 0.030122    0.11     0.10
9.268 7.896e+11 0.3069495    0.91     0.78 8.457e+10 0.0328755    0.10     0.09
9.783 7.071e+11 0.281622    0.67     0.62 7.346e+10 0.029259    0.07     0.06
10.299 7.942e+11 0.3208795    0.76     0.55 8.180e+10 0.033049    0.08     0.06
10.814 7.853e+11 0.3188935    0.65     0.45 7.147e+10 0.029022    0.07     0.04
11.329 7.055e+11 0.285641    0.54     0.36 6.874e+10 0.027829    0.06     0.04
11.845 5.857e+11 0.2347705    0.59     0.29 5.563e+10 0.0222985    0.06     0.03
12.360 4.591e+11 0.1811045    0.53     0.23 4.515e+10 0.017812    0.06     0.02
12.876 3.939e+11 0.1521395    0.47     0.18 3.856e+10 0.0148955    0.05     0.02
13.391 4.602e+11 0.173368    0.51     0.18 4.358e+10 0.016419    0.05     0.02
13.907 4.183e+11 0.1531545    0.49     0.15 4.417e+10 0.016173    0.06     0.02
14.423 3.285e+11 0.1165845    0.47     0.12 3.550e+10 0.0126    0.06     0.01
14.938 2.978e+11 0.102232    0.47     0.10 3.433e+10 0.011783    0.06     0.01
15.454 3.402e+11 0.112767    0.51     0.10 4.313e+10 0.0142955    0.07     0.01
15.969 2.915e+11 0.093176    0.50     0.09 3.983e+10 0.0127305    0.07     0.01
16.485 2.459e+11 0.075737    0.46     0.07 3.652e+10 0.0112465    0.08     0.01
17.000 1.875e+11 0.0556095    0.41     0.06 3.050e+10 0.009044    0.07     0.01
 
#The flux was measured through this aperture (hor, ver in mm)
flux_aperture
