# 22 Mar 2012 12:27:56 PM Photodiode thickness: 300 micron; gain: 0.5; Beam size: 0.360000 , 0.194000 mm; Spear current: 348.4006103 Integration time: 1 collimator_size: 0.01 0.01
# Energy(keV) Flux(ph/s) Current(mA) i2 shutter closed(V) i2 shutter open(V)
6.690 7.349e+10 0.0217445    1.27     1.26 8.836e+09 0.0026145    0.17     0.17
7.206 1.172e+11 0.037297    1.32     1.32 1.377e+10 0.004382    0.17     0.16
7.721 1.760e+11 0.0597155    1.33     1.28 1.923e+10 0.0065265    0.16     0.15
8.237 2.113e+11 0.0758115    1.16     1.12 2.177e+10 0.0078105    0.13     0.12
8.752 2.680e+11 0.1006295    0.97     0.94 2.526e+10 0.0094845    0.10     0.10
9.267 2.674e+11 0.103945    0.88     0.76 2.821e+10 0.010967    0.10     0.08
9.783 2.392e+11 0.095291    0.65     0.61 2.492e+10 0.0099255    0.07     0.06
10.299 2.927e+11 0.118272    0.74     0.54 2.914e+10 0.0117715    0.08     0.06
10.814 3.038e+11 0.123348    0.64     0.44 2.807e+10 0.011399    0.06     0.04
11.329 2.828e+11 0.1144805    0.53     0.35 2.746e+10 0.0111175    0.05     0.04
11.845 2.422e+11 0.097099    0.58     0.28 2.344e+10 0.0093965    0.06     0.03
12.360 1.353e+11 0.053354    0.53     0.22 1.345e+10 0.005307    0.05     0.02
12.876 1.196e+11 0.0462105    0.46     0.18 1.159e+10 0.0044755    0.05     0.02
13.391 1.493e+11 0.0562415    0.51     0.18 1.330e+10 0.005012    0.05     0.02
13.907 1.284e+11 0.0470015    0.49     0.15 1.349e+10 0.004939    0.06     0.02
14.423 9.774e+10 0.034687    0.47     0.12 1.044e+10 0.003705    0.06     0.01
14.938 9.254e+10 0.0317675    0.46     0.10 9.916e+09 0.003404    0.06     0.01
15.454 1.121e+11 0.037161    0.52     0.10 1.450e+10 0.0048055    0.07     0.01
15.969 1.005e+11 0.032127    0.49     0.09 1.338e+10 0.0042785    0.07     0.01
16.485 8.673e+10 0.026709    0.46     0.07 1.268e+10 0.0039065    0.07     0.01
17.000 6.712e+10 0.019902    0.40     0.06 1.065e+10 0.003158    0.07     0.01
 
#The flux was measured through this aperture (hor, ver in mm)
flux_aperture
