# 14 Mar 2012 08:58:05 AM Photodiode thickness: 300 micron; gain: 0.5; Beam size: 0.360000 , 0.194000 mm; Spear current: 348.5259093 Integration time: 1
# Energy(keV) Flux(ph/s) Current(mA) i2 shutter closed(V) i2 shutter open(V)
6.690 2.444e+12 0.7231955    1.76     1.75 3.166e+11 0.0936935    0.23     0.23
7.206 3.383e+12 1.0762055    1.70     1.70 4.090e+11 0.130138    0.21     0.21
7.721 4.082e+12 1.3853915    1.53     1.49 4.793e+11 0.1626555    0.18     0.17
8.237 4.452e+12 1.59714    1.26     1.22 4.877e+11 0.174976    0.14     0.13
8.752 4.572e+12 1.7163535    1.00     0.97 4.728e+11 0.1775045    0.10     0.10
9.268 4.428e+12 1.7213045    0.86     0.75 4.843e+11 0.188282    0.09     0.08
9.783 4.128e+12 1.643999    0.62     0.59 4.202e+11 0.1673775    0.06     0.06
10.299 3.924e+12 1.585167    0.63     0.47 4.002e+11 0.1616715    0.06     0.05
10.814 3.616e+12 1.468302    0.52     0.37 3.627e+11 0.1472985    0.05     0.04
11.329 3.464e+12 1.4025955    0.44     0.31 3.420e+11 0.138463    0.04     0.03
11.845 3.089e+12 1.238119    0.45     0.24 3.088e+11 0.123785    0.05     0.02
12.360 2.709e+12 1.0685375    0.40     0.19 2.676e+11 0.105555    0.04     0.02
12.876 2.405e+12 0.9291645    0.34     0.15 2.400e+11 0.0926985    0.04     0.02
13.391 2.609e+12 0.9828425    0.38     0.15 2.593e+11 0.097677    0.04     0.02
13.907 2.303e+12 0.8431415    0.35     0.13 2.456e+11 0.0899215    0.04     0.01
14.423 2.011e+12 0.7135855    0.33     0.11 2.217e+11 0.078697    0.04     0.01
14.938 1.721e+12 0.5908575    0.31     0.09 1.988e+11 0.0682585    0.04     0.01
15.454 1.674e+12 0.554857    0.35     0.08 2.092e+11 0.069341    0.04     0.01
15.969 1.445e+12 0.4618395    0.33     0.07 2.024e+11 0.064702    0.05     0.01
16.485 1.217e+12 0.3748065    0.30     0.06 1.867e+11 0.0575085    0.05     0.01
17.000 9.739e+11 0.2887835    0.27     0.05 1.671e+11 0.0495595    0.05     0.01
 
#The flux was measured through this aperture (hor, ver in mm)
flux_aperture
