# 14 Mar 2012 09:19:17 AM Photodiode thickness: 300 micron; gain: 0.5; Beam size: 0.360000 , 0.194000 mm; Spear current: 347.6535567 Integration time: 1 collimator_size: 0.007 0.007
# Energy(keV) Flux(ph/s) Current(mA) i2 shutter closed(V) i2 shutter open(V)
6.690 2.658e+10 0.007864    1.76     1.75 3.625e+09 0.0010725    0.23     0.23
7.206 5.177e+10 0.016472    1.72     1.72 6.503e+09 0.002069    0.21     0.21
7.721 7.989e+10 0.027112    1.55     1.50 9.876e+09 0.0033515    0.18     0.18
8.237 5.849e+10 0.020984    1.28     1.24 6.793e+09 0.002437    0.14     0.14
8.752 7.786e+10 0.029233    1.02     0.99 8.905e+09 0.0033435    0.11     0.10
9.268 9.094e+10 0.035352    0.88     0.77 1.011e+10 0.0039285    0.09     0.08
9.783 1.206e+11 0.0480535    0.63     0.60 1.132e+10 0.004507    0.07     0.06
10.299 1.274e+11 0.051454    0.63     0.47 1.306e+10 0.0052775    0.07     0.05
10.814 1.317e+11 0.053466    0.53     0.37 1.299e+10 0.0052735    0.05     0.04
11.329 1.272e+11 0.0515135    0.44     0.31 1.305e+10 0.0052845    0.04     0.03
11.845 1.264e+11 0.0506455    0.46     0.24 1.254e+10 0.005026    0.05     0.02
12.360 9.044e+10 0.0356775    0.40     0.19 8.851e+09 0.0034915    0.04     0.02
12.876 8.068e+10 0.031166    0.35     0.15 7.911e+09 0.003056    0.04     0.02
13.391 8.984e+10 0.0338435    0.38     0.15 8.856e+09 0.003336    0.04     0.02
13.907 7.616e+10 0.027886    0.36     0.13 7.903e+09 0.0028935    0.04     0.01
14.423 6.673e+10 0.0236835    0.33     0.11 7.209e+09 0.0025585    0.04     0.01
14.938 5.912e+10 0.0202935    0.32     0.09 6.783e+09 0.0023285    0.04     0.01
15.454 5.680e+10 0.0188275    0.35     0.08 7.211e+09 0.00239    0.04     0.01
15.969 4.903e+10 0.0156735    0.33     0.07 6.944e+09 0.0022195    0.05     0.01
16.485 4.200e+10 0.0129345    0.30     0.06 6.656e+09 0.00205    0.05     0.01
17.000 3.451e+10 0.0102335    0.27     0.05 5.851e+09 0.001735    0.05     0.01
 
#The flux was measured through this aperture (hor, ver in mm)
flux_aperture
